GTC_SLOAN_I
frq          wvl          transmission
[GHz]        [micron]                 
4.61219e+05  6.50000e-01  4.73081e-04
4.60511e+05  6.51000e-01  6.20455e-04
4.59804e+05  6.52000e-01  6.16780e-04
4.59100e+05  6.53000e-01  5.78381e-04
4.58398e+05  6.54000e-01  5.90395e-04
4.57698e+05  6.55000e-01  5.84416e-04
4.57001e+05  6.56000e-01  6.61027e-04
4.56305e+05  6.57000e-01  7.17024e-04
4.55612e+05  6.58000e-01  6.84715e-04
4.54920e+05  6.59000e-01  6.80023e-04
4.54231e+05  6.60000e-01  7.01685e-04
4.53544e+05  6.61000e-01  6.78930e-04
4.52859e+05  6.62000e-01  6.86014e-04
4.52176e+05  6.63000e-01  6.49479e-04
4.51495e+05  6.64000e-01  8.05995e-04
4.50816e+05  6.65000e-01  7.32249e-04
4.50139e+05  6.66000e-01  7.41918e-04
4.49464e+05  6.67000e-01  8.34047e-04
4.48791e+05  6.68000e-01  8.81726e-04
4.48120e+05  6.69000e-01  1.06575e-03
4.47451e+05  6.70000e-01  1.50317e-03
4.46785e+05  6.71000e-01  1.95849e-03
4.46120e+05  6.72000e-01  2.74568e-03
4.45457e+05  6.73000e-01  3.68457e-03
4.44796e+05  6.74000e-01  5.49455e-03
4.44137e+05  6.75000e-01  8.17133e-03
4.43480e+05  6.76000e-01  1.21192e-02
4.42825e+05  6.77000e-01  1.71450e-02
4.42172e+05  6.78000e-01  2.38253e-02
4.41521e+05  6.79000e-01  3.22610e-02
4.40871e+05  6.80000e-01  4.21381e-02
4.40224e+05  6.81000e-01  5.55399e-02
4.39578e+05  6.82000e-01  7.15248e-02
4.38935e+05  6.83000e-01  8.89408e-02
4.38293e+05  6.84000e-01  1.09827e-01
4.37653e+05  6.85000e-01  1.33155e-01
4.37015e+05  6.86000e-01  1.58231e-01
4.36379e+05  6.87000e-01  1.86392e-01
4.35745e+05  6.88000e-01  2.18617e-01
4.35112e+05  6.89000e-01  2.51153e-01
4.34482e+05  6.90000e-01  2.84635e-01
4.33853e+05  6.91000e-01  3.18711e-01
4.33226e+05  6.92000e-01  3.52652e-01
4.32601e+05  6.93000e-01  3.86153e-01
4.31978e+05  6.94000e-01  4.18852e-01
4.31356e+05  6.95000e-01  4.50074e-01
4.30736e+05  6.96000e-01  4.80184e-01
4.30118e+05  6.97000e-01  5.07939e-01
4.29502e+05  6.98000e-01  5.33758e-01
4.28888e+05  6.99000e-01  5.58880e-01
4.28275e+05  7.00000e-01  5.83047e-01
4.27664e+05  7.01000e-01  6.04750e-01
4.27055e+05  7.02000e-01  6.26119e-01
4.26447e+05  7.03000e-01  6.45914e-01
4.25842e+05  7.04000e-01  6.63224e-01
4.25238e+05  7.05000e-01  6.80408e-01
4.24635e+05  7.06000e-01  6.96478e-01
4.24035e+05  7.07000e-01  7.10582e-01
4.23436e+05  7.08000e-01  7.22851e-01
4.22838e+05  7.09000e-01  7.35396e-01
4.22243e+05  7.10000e-01  7.45581e-01
4.21649e+05  7.11000e-01  7.55295e-01
4.21057e+05  7.12000e-01  7.64416e-01
4.20466e+05  7.13000e-01  7.73467e-01
4.19877e+05  7.14000e-01  7.81655e-01
4.19290e+05  7.15000e-01  7.88850e-01
4.18705e+05  7.16000e-01  7.96390e-01
4.18121e+05  7.17000e-01  8.02627e-01
4.17538e+05  7.18000e-01  8.09120e-01
4.16958e+05  7.19000e-01  8.14288e-01
4.16378e+05  7.20000e-01  8.19919e-01
4.15801e+05  7.21000e-01  8.24629e-01
4.15225e+05  7.22000e-01  8.28838e-01
4.14651e+05  7.23000e-01  8.33606e-01
4.14078e+05  7.24000e-01  8.37785e-01
4.13507e+05  7.25000e-01  8.41460e-01
4.12937e+05  7.26000e-01  8.45700e-01
4.12369e+05  7.27000e-01  8.48435e-01
4.11803e+05  7.28000e-01  8.52572e-01
4.11238e+05  7.29000e-01  8.55817e-01
4.10675e+05  7.30000e-01  8.58618e-01
4.10113e+05  7.31000e-01  8.61286e-01
4.09553e+05  7.32000e-01  8.64929e-01
4.08994e+05  7.33000e-01  8.68205e-01
4.08437e+05  7.34000e-01  8.70326e-01
4.07881e+05  7.35000e-01  8.73028e-01
4.07327e+05  7.36000e-01  8.74774e-01
4.06774e+05  7.37000e-01  8.76958e-01
4.06223e+05  7.38000e-01  8.77534e-01
4.05673e+05  7.39000e-01  8.79685e-01
4.05125e+05  7.40000e-01  8.80851e-01
4.04578e+05  7.41000e-01  8.82468e-01
4.04033e+05  7.42000e-01  8.84104e-01
4.03489e+05  7.43000e-01  8.85309e-01
4.02947e+05  7.44000e-01  8.85875e-01
4.02406e+05  7.45000e-01  8.86447e-01
4.01867e+05  7.46000e-01  8.86434e-01
4.01329e+05  7.47000e-01  8.87083e-01
4.00792e+05  7.48000e-01  8.87670e-01
4.00257e+05  7.49000e-01  8.88264e-01
3.99723e+05  7.50000e-01  8.88328e-01
3.99191e+05  7.51000e-01  8.88863e-01
3.98660e+05  7.52000e-01  8.88863e-01
3.98131e+05  7.53000e-01  8.89409e-01
3.97603e+05  7.54000e-01  8.89412e-01
3.97076e+05  7.55000e-01  8.89415e-01
3.96551e+05  7.56000e-01  8.89418e-01
3.96027e+05  7.57000e-01  8.89351e-01
3.95505e+05  7.58000e-01  8.89846e-01
3.94983e+05  7.59000e-01  8.89145e-01
3.94464e+05  7.60000e-01  8.90004e-01
3.93945e+05  7.61000e-01  8.89869e-01
3.93428e+05  7.62000e-01  8.89946e-01
3.92913e+05  7.63000e-01  8.89298e-01
3.92399e+05  7.64000e-01  8.89886e-01
3.91886e+05  7.65000e-01  8.89819e-01
3.91374e+05  7.66000e-01  8.89825e-01
3.90864e+05  7.67000e-01  8.89904e-01
3.90355e+05  7.68000e-01  8.89235e-01
3.89847e+05  7.69000e-01  8.89087e-01
3.89341e+05  7.70000e-01  8.89088e-01
3.88836e+05  7.71000e-01  8.88937e-01
3.88332e+05  7.72000e-01  8.88860e-01
3.87830e+05  7.73000e-01  8.89558e-01
3.87329e+05  7.74000e-01  8.88937e-01
3.86829e+05  7.75000e-01  8.88859e-01
3.86330e+05  7.76000e-01  8.88780e-01
3.85833e+05  7.77000e-01  8.88062e-01
3.85337e+05  7.78000e-01  8.88057e-01
3.84843e+05  7.79000e-01  8.87325e-01
3.84349e+05  7.80000e-01  8.87233e-01
3.83857e+05  7.81000e-01  8.87139e-01
3.83366e+05  7.82000e-01  8.86385e-01
3.82877e+05  7.83000e-01  8.85621e-01
3.82388e+05  7.84000e-01  8.84761e-01
3.81901e+05  7.85000e-01  8.84733e-01
3.81415e+05  7.86000e-01  8.84704e-01
3.80931e+05  7.87000e-01  8.83907e-01
3.80447e+05  7.88000e-01  8.82326e-01
3.79965e+05  7.89000e-01  8.82280e-01
3.79484e+05  7.90000e-01  8.81356e-01
3.79004e+05  7.91000e-01  8.79026e-01
3.78526e+05  7.92000e-01  8.76765e-01
3.78048e+05  7.93000e-01  8.77379e-01
3.77572e+05  7.94000e-01  8.76490e-01
3.77097e+05  7.95000e-01  8.73355e-01
3.76624e+05  7.96000e-01  8.71712e-01
3.76151e+05  7.97000e-01  8.70869e-01
3.75680e+05  7.98000e-01  8.68577e-01
3.75210e+05  7.99000e-01  8.66872e-01
3.74741e+05  8.00000e-01  8.65257e-01
3.74273e+05  8.01000e-01  8.63622e-01
3.73806e+05  8.02000e-01  8.61123e-01
3.73341e+05  8.03000e-01  8.57863e-01
3.72876e+05  8.04000e-01  8.57012e-01
3.72413e+05  8.05000e-01  8.54555e-01
3.71951e+05  8.06000e-01  8.51467e-01
3.71490e+05  8.07000e-01  8.48520e-01
3.71030e+05  8.08000e-01  8.47506e-01
3.70572e+05  8.09000e-01  8.43852e-01
3.70114e+05  8.10000e-01  8.40694e-01
3.69658e+05  8.11000e-01  8.40290e-01
3.69203e+05  8.12000e-01  8.38065e-01
3.68748e+05  8.13000e-01  8.35641e-01
3.68295e+05  8.14000e-01  8.34544e-01
3.67844e+05  8.15000e-01  8.33707e-01
3.67393e+05  8.16000e-01  8.31564e-01
3.66943e+05  8.17000e-01  8.32436e-01
3.66494e+05  8.18000e-01  8.33072e-01
3.66047e+05  8.19000e-01  8.33834e-01
3.65601e+05  8.20000e-01  8.35062e-01
3.65155e+05  8.21000e-01  8.36692e-01
3.64711e+05  8.22000e-01  8.37774e-01
3.64268e+05  8.23000e-01  8.41062e-01
3.63826e+05  8.24000e-01  8.44478e-01
3.63385e+05  8.25000e-01  8.47212e-01
3.62945e+05  8.26000e-01  8.51720e-01
3.62506e+05  8.27000e-01  8.54801e-01
3.62068e+05  8.28000e-01  8.57040e-01
3.61631e+05  8.29000e-01  8.59894e-01
3.61196e+05  8.30000e-01  8.62661e-01
3.60761e+05  8.31000e-01  8.64156e-01
3.60327e+05  8.32000e-01  8.63935e-01
3.59895e+05  8.33000e-01  8.60568e-01
3.59463e+05  8.34000e-01  8.53035e-01
3.59033e+05  8.35000e-01  8.43689e-01
3.58603e+05  8.36000e-01  8.29269e-01
3.58175e+05  8.37000e-01  8.12182e-01
3.57748e+05  8.38000e-01  7.88850e-01
3.57321e+05  8.39000e-01  7.57958e-01
3.56896e+05  8.40000e-01  7.22813e-01
3.56471e+05  8.41000e-01  6.81044e-01
3.56048e+05  8.42000e-01  6.38526e-01
3.55626e+05  8.43000e-01  5.93211e-01
3.55204e+05  8.44000e-01  5.47232e-01
3.54784e+05  8.45000e-01  5.00503e-01
3.54365e+05  8.46000e-01  4.55313e-01
3.53946e+05  8.47000e-01  4.11286e-01
3.53529e+05  8.48000e-01  3.70690e-01
3.53112e+05  8.49000e-01  3.33830e-01
3.52697e+05  8.50000e-01  2.98593e-01
3.52283e+05  8.51000e-01  2.66288e-01
3.51869e+05  8.52000e-01  2.35622e-01
3.51457e+05  8.53000e-01  2.08995e-01
3.51045e+05  8.54000e-01  1.84698e-01
3.50634e+05  8.55000e-01  1.61676e-01
3.50225e+05  8.56000e-01  1.42621e-01
3.49816e+05  8.57000e-01  1.26450e-01
3.49408e+05  8.58000e-01  1.11337e-01
3.49002e+05  8.59000e-01  9.77781e-02
3.48596e+05  8.60000e-01  8.65225e-02
3.48191e+05  8.61000e-01  7.59888e-02
3.47787e+05  8.62000e-01  6.64125e-02
3.47384e+05  8.63000e-01  5.95879e-02
3.46982e+05  8.64000e-01  5.25420e-02
3.46581e+05  8.65000e-01  4.57648e-02
3.46181e+05  8.66000e-01  4.10956e-02
3.45781e+05  8.67000e-01  3.60692e-02
3.45383e+05  8.68000e-01  3.13740e-02
3.44986e+05  8.69000e-01  2.85383e-02
3.44589e+05  8.70000e-01  2.61779e-02
3.44193e+05  8.71000e-01  2.30187e-02
3.43799e+05  8.72000e-01  2.00138e-02
3.43405e+05  8.73000e-01  1.84907e-02
3.43012e+05  8.74000e-01  1.64559e-02
3.42620e+05  8.75000e-01  1.46908e-02
3.42229e+05  8.76000e-01  1.33098e-02
3.41839e+05  8.77000e-01  1.22339e-02
3.41449e+05  8.78000e-01  1.08669e-02
3.41061e+05  8.79000e-01  9.47626e-03
3.40673e+05  8.80000e-01  8.80665e-03
3.40287e+05  8.81000e-01  7.83615e-03
3.39901e+05  8.82000e-01  7.14931e-03
3.39516e+05  8.83000e-01  6.67452e-03
3.39132e+05  8.84000e-01  6.12018e-03
3.38749e+05  8.85000e-01  5.37773e-03
3.38366e+05  8.86000e-01  4.82199e-03
3.37985e+05  8.87000e-01  4.59257e-03
3.37604e+05  8.88000e-01  4.14719e-03
3.37224e+05  8.89000e-01  3.88015e-03
3.36845e+05  8.90000e-01  3.86925e-03
3.36467e+05  8.91000e-01  3.37964e-03
3.36090e+05  8.92000e-01  3.07308e-03
3.35714e+05  8.93000e-01  2.82001e-03
3.35338e+05  8.94000e-01  2.50143e-03
3.34964e+05  8.95000e-01  2.49607e-03
3.34590e+05  8.96000e-01  2.56889e-03
3.34217e+05  8.97000e-01  2.34749e-03
3.33845e+05  8.98000e-01  2.11205e-03
3.33473e+05  8.99000e-01  1.92561e-03
3.33103e+05  9.00000e-01  1.90356e-03
