SUBARU_B
frq          wvl          transmission
[GHz]        [micron]                 
8.51635e+05  3.52020e-01  0.00000e+00
8.49246e+05  3.53010e-01  1.10000e-05
8.46871e+05  3.54000e-01  2.80000e-05
8.44510e+05  3.54990e-01  4.40000e-05
8.42161e+05  3.55980e-01  7.60000e-05
8.39825e+05  3.56970e-01  1.27000e-04
8.37503e+05  3.57960e-01  2.26000e-04
8.35193e+05  3.58950e-01  4.26000e-04
8.32896e+05  3.59940e-01  7.60000e-04
8.30611e+05  3.60930e-01  1.27800e-03
8.28339e+05  3.61920e-01  2.02300e-03
8.26079e+05  3.62910e-01  3.03100e-03
8.23832e+05  3.63900e-01  4.31700e-03
8.21597e+05  3.64890e-01  5.88900e-03
8.19374e+05  3.65880e-01  7.75600e-03
8.17163e+05  3.66870e-01  9.94700e-03
8.14963e+05  3.67860e-01  1.25320e-02
8.12776e+05  3.68850e-01  1.56290e-02
8.10600e+05  3.69840e-01  1.93860e-02
8.08436e+05  3.70830e-01  2.38420e-02
8.06284e+05  3.71820e-01  2.89620e-02
8.04164e+05  3.72800e-01  3.46430e-02
8.02034e+05  3.73790e-01  4.06780e-02
7.99916e+05  3.74780e-01  4.68070e-02
7.97808e+05  3.75770e-01  5.29010e-02
7.95712e+05  3.76760e-01  5.88160e-02
7.93627e+05  3.77750e-01  6.44700e-02
7.91552e+05  3.78740e-01  7.00010e-02
7.89488e+05  3.79730e-01  7.55450e-02
7.87436e+05  3.80720e-01  8.14590e-02
7.85393e+05  3.81710e-01  8.79720e-02
7.83362e+05  3.82700e-01  9.50940e-02
7.81340e+05  3.83690e-01  1.02807e-01
7.79329e+05  3.84680e-01  1.11064e-01
7.77329e+05  3.85670e-01  1.19509e-01
7.75339e+05  3.86660e-01  1.27939e-01
7.73359e+05  3.87650e-01  1.36357e-01
7.71389e+05  3.88640e-01  1.44663e-01
7.69429e+05  3.89630e-01  1.52934e-01
7.67479e+05  3.90620e-01  1.60671e-01
7.65538e+05  3.91610e-01  1.67922e-01
7.63608e+05  3.92600e-01  1.75018e-01
7.61687e+05  3.93590e-01  1.81948e-01
7.59776e+05  3.94580e-01  1.88701e-01
7.57875e+05  3.95570e-01  1.95246e-01
7.55983e+05  3.96560e-01  2.01469e-01
7.54100e+05  3.97550e-01  2.07450e-01
7.52227e+05  3.98540e-01  2.13417e-01
7.50363e+05  3.99530e-01  2.19389e-01
7.48508e+05  4.00520e-01  2.24975e-01
7.46662e+05  4.01510e-01  2.30070e-01
7.44826e+05  4.02500e-01  2.34982e-01
7.42998e+05  4.03490e-01  2.39764e-01
7.41180e+05  4.04480e-01  2.44593e-01
7.39370e+05  4.05470e-01  2.49730e-01
7.37569e+05  4.06460e-01  2.55285e-01
7.35777e+05  4.07450e-01  2.61222e-01
7.33994e+05  4.08440e-01  2.67372e-01
7.32219e+05  4.09430e-01  2.73881e-01
7.30453e+05  4.10420e-01  2.80655e-01
7.28695e+05  4.11410e-01  2.87309e-01
7.26946e+05  4.12400e-01  2.93834e-01
7.25205e+05  4.13390e-01  3.00205e-01
7.23472e+05  4.14380e-01  3.06371e-01
7.21748e+05  4.15370e-01  3.12428e-01
7.20032e+05  4.16360e-01  3.18384e-01
7.18324e+05  4.17350e-01  3.24050e-01
7.16624e+05  4.18340e-01  3.29176e-01
7.14932e+05  4.19330e-01  3.33456e-01
7.13248e+05  4.20320e-01  3.36702e-01
7.11572e+05  4.21310e-01  3.39177e-01
7.09904e+05  4.22300e-01  3.41863e-01
7.08244e+05  4.23290e-01  3.44865e-01
7.06591e+05  4.24280e-01  3.48290e-01
7.04946e+05  4.25270e-01  3.52255e-01
7.03309e+05  4.26260e-01  3.56618e-01
7.01679e+05  4.27250e-01  3.61327e-01
7.00057e+05  4.28240e-01  3.66498e-01
6.98442e+05  4.29230e-01  3.71885e-01
6.96835e+05  4.30220e-01  3.77128e-01
6.95235e+05  4.31210e-01  3.82430e-01
6.93643e+05  4.32200e-01  3.87886e-01
6.92058e+05  4.33190e-01  3.93339e-01
6.90480e+05  4.34180e-01  3.98866e-01
6.88909e+05  4.35170e-01  4.04510e-01
6.87345e+05  4.36160e-01  4.10105e-01
6.85789e+05  4.37150e-01  4.15401e-01
6.84239e+05  4.38140e-01  4.20151e-01
6.82696e+05  4.39130e-01  4.24402e-01
6.81161e+05  4.40120e-01  4.28105e-01
6.79632e+05  4.41110e-01  4.30679e-01
6.78110e+05  4.42100e-01  4.32810e-01
6.76595e+05  4.43090e-01  4.35083e-01
6.75102e+05  4.44070e-01  4.37738e-01
6.73600e+05  4.45060e-01  4.40917e-01
6.72105e+05  4.46050e-01  4.44606e-01
6.70617e+05  4.47040e-01  4.48743e-01
6.69135e+05  4.48030e-01  4.53132e-01
6.67659e+05  4.49020e-01  4.57642e-01
6.66191e+05  4.50010e-01  4.62302e-01
6.64728e+05  4.51000e-01  4.66722e-01
6.63272e+05  4.51990e-01  4.71214e-01
6.61823e+05  4.52980e-01  4.75515e-01
6.60379e+05  4.53970e-01  4.79662e-01
6.58942e+05  4.54960e-01  4.83445e-01
6.57512e+05  4.55950e-01  4.86607e-01
6.56087e+05  4.56940e-01  4.88997e-01
6.54669e+05  4.57930e-01  4.90570e-01
6.53256e+05  4.58920e-01  4.91217e-01
6.51850e+05  4.59910e-01  4.91040e-01
6.50450e+05  4.60900e-01  4.89872e-01
6.49056e+05  4.61890e-01  4.88483e-01
6.47668e+05  4.62880e-01  4.87510e-01
6.46286e+05  4.63870e-01  4.87296e-01
6.44909e+05  4.64860e-01  4.88107e-01
6.43539e+05  4.65850e-01  4.90023e-01
6.42174e+05  4.66840e-01  4.92861e-01
6.40815e+05  4.67830e-01  4.96471e-01
6.39462e+05  4.68820e-01  5.00727e-01
6.38114e+05  4.69810e-01  5.05387e-01
6.36772e+05  4.70800e-01  5.10086e-01
6.35436e+05  4.71790e-01  5.14836e-01
6.34106e+05  4.72780e-01  5.19718e-01
6.32781e+05  4.73770e-01  5.24647e-01
6.31461e+05  4.74760e-01  5.29599e-01
6.30147e+05  4.75750e-01  5.34349e-01
6.28838e+05  4.76740e-01  5.38342e-01
6.27535e+05  4.77730e-01  5.41274e-01
6.26238e+05  4.78720e-01  5.42972e-01
6.24945e+05  4.79710e-01  5.43360e-01
6.23658e+05  4.80700e-01  5.42747e-01
6.22376e+05  4.81690e-01  5.41087e-01
6.21100e+05  4.82680e-01  5.37863e-01
6.19829e+05  4.83670e-01  5.31556e-01
6.18562e+05  4.84660e-01  5.20054e-01
6.17301e+05  4.85650e-01  5.01256e-01
6.16046e+05  4.86640e-01  4.74080e-01
6.14795e+05  4.87630e-01  4.38527e-01
6.13549e+05  4.88620e-01  3.95477e-01
6.12309e+05  4.89610e-01  3.47365e-01
6.11073e+05  4.90600e-01  2.97480e-01
6.09842e+05  4.91590e-01  2.48608e-01
6.08617e+05  4.92580e-01  2.02940e-01
6.07396e+05  4.93570e-01  1.62277e-01
6.06180e+05  4.94560e-01  1.27556e-01
6.04969e+05  4.95550e-01  9.88390e-02
6.03763e+05  4.96540e-01  7.57000e-02
6.02562e+05  4.97530e-01  5.75200e-02
6.01365e+05  4.98520e-01  4.35300e-02
6.00173e+05  4.99510e-01  3.29300e-02
5.98986e+05  5.00500e-01  2.49800e-02
5.97803e+05  5.01490e-01  1.90630e-02
5.96626e+05  5.02480e-01  1.47050e-02
5.95452e+05  5.03470e-01  1.14960e-02
5.94284e+05  5.04460e-01  9.12000e-03
5.93120e+05  5.05450e-01  7.36900e-03
5.91960e+05  5.06440e-01  6.06700e-03
5.90806e+05  5.07430e-01  5.09900e-03
5.89655e+05  5.08420e-01  4.38100e-03
5.88509e+05  5.09410e-01  3.81300e-03
5.87368e+05  5.10400e-01  3.36300e-03
5.86231e+05  5.11390e-01  2.99600e-03
5.85098e+05  5.12380e-01  2.68800e-03
5.83970e+05  5.13370e-01  2.41400e-03
5.82857e+05  5.14350e-01  2.17900e-03
5.81737e+05  5.15340e-01  1.97000e-03
5.80622e+05  5.16330e-01  1.77500e-03
5.79511e+05  5.17320e-01  1.57100e-03
5.78404e+05  5.18310e-01  1.37300e-03
5.77301e+05  5.19300e-01  1.20900e-03
5.76203e+05  5.20290e-01  1.05800e-03
5.75108e+05  5.21280e-01  9.21000e-04
5.74018e+05  5.22270e-01  7.90000e-04
5.72932e+05  5.23260e-01  6.87000e-04
5.71850e+05  5.24250e-01  5.96000e-04
5.70772e+05  5.25240e-01  5.20000e-04
5.69699e+05  5.26230e-01  4.36000e-04
5.68629e+05  5.27220e-01  3.66000e-04
5.67563e+05  5.28210e-01  3.02000e-04
5.66501e+05  5.29200e-01  2.53000e-04
5.65443e+05  5.30190e-01  2.17000e-04
5.64390e+05  5.31180e-01  1.89000e-04
5.63340e+05  5.32170e-01  1.53000e-04
5.62294e+05  5.33160e-01  1.32000e-04
5.61251e+05  5.34150e-01  1.25000e-04
5.60213e+05  5.35140e-01  1.25000e-04
5.59179e+05  5.36130e-01  1.18000e-04
5.58148e+05  5.37120e-01  1.04000e-04
5.57121e+05  5.38110e-01  9.70000e-05
5.56098e+05  5.39100e-01  9.70000e-05
5.55079e+05  5.40090e-01  9.70000e-05
5.54063e+05  5.41080e-01  1.05000e-04
5.53051e+05  5.42070e-01  9.70000e-05
5.52043e+05  5.43060e-01  9.00000e-05
5.51038e+05  5.44050e-01  7.50000e-05
5.50038e+05  5.45040e-01  6.80000e-05
5.49040e+05  5.46030e-01  4.50000e-05
5.48047e+05  5.47020e-01  2.30000e-05
5.47057e+05  5.48010e-01  8.00000e-06
5.46070e+05  5.49000e-01  0.00000e+00
